Sample	2mm tape 
date	07/01/2025
	
Temperature (K)	77.00
Angle (deg.)	45.000000
field / T	0.000000
	
		
Approx. trace time (s)	60.0	
		
Current / A	V1  -sample/ uV	time/s
-0.019588	-6.335732	0.000000
-0.019152	-6.298173	0.046000
-0.020161	-6.262574	0.092000
-0.019265	-6.210030	0.470000
-0.018937	-6.223797	0.515000
-0.019779	-6.239307	0.561000
-0.019994	-6.231561	0.607000
-0.019027	-6.181250	0.653000
-0.019074	-6.111988	0.699000
-0.010307	-6.043828	0.745000
0.046379	-6.001237	0.790000
0.110721	-6.039983	0.836000
0.166379	-6.120403	0.882000
0.379893	-6.650619	0.928000
0.436920	-6.737071	1.100000
0.493192	-6.795802	1.146000
0.700864	-6.830682	1.192000
0.757014	-6.764139	1.357000
0.813868	-6.730676	1.403000
0.871481	-6.695176	1.449000
0.929405	-6.660249	1.495000
0.988001	-6.629118	1.541000
1.044950	-6.599447	1.586000
1.101918	-6.567130	1.632000
1.158435	-6.515989	1.678000
1.213991	-6.436497	1.724000
1.271692	-6.325077	1.769000
1.328928	-6.185530	1.815000
1.387383	-6.067091	1.861000
1.445092	-6.004532	1.907000
1.502375	-5.971820	1.952000
1.559652	-5.867719	1.998000
1.752956	-5.605125	2.044000
1.810575	-5.561773	2.200000
1.869078	-5.511916	2.246000
2.074666	-5.461929	2.292000
2.132042	-5.646760	2.458000
2.190223	-5.772511	2.503000
2.247781	-5.890256	2.549000
2.306133	-5.980746	2.595000
2.363893	-6.065035	2.641000
2.420246	-6.159476	2.687000
2.476777	-6.261600	2.733000
2.533476	-6.369477	2.779000
2.590867	-6.478720	2.824000
2.648662	-6.580999	2.870000
2.706747	-6.669743	2.916000
2.764231	-6.734517	2.962000
2.821334	-6.769155	3.008000
2.878184	-6.773843	3.053000
2.934467	-6.755755	3.099000
3.129745	-6.611501	3.145000
3.187705	-6.473172	3.301000
3.245743	-6.297354	3.346000
3.450047	-6.135661	3.392000
3.507647	-6.025458	3.558000
3.566721	-5.929737	3.603000
3.623652	-5.840210	3.649000
3.681022	-5.786896	3.695000
3.736182	-5.772693	3.741000
3.794112	-5.781087	3.787000
3.851766	-5.786461	3.833000
3.909354	-5.766915	3.879000
3.967192	-5.703842	3.924000
4.024710	-5.632982	3.970000
4.081722	-5.593585	4.016000
4.136091	-5.589971	4.061000
4.193873	-5.553460	4.107000
4.251923	-5.447253	4.153000
4.310201	-5.362528	4.199000
4.827681	-6.106928	4.245000
4.885771	-6.011136	4.658000
4.941655	-5.971069	4.704000
4.997743	-5.909715	4.749000
5.054482	-5.833083	4.795000
5.112392	-5.796436	4.841000
5.170323	-5.813363	4.887000
5.228526	-5.850671	4.932000
5.285624	-5.895833	4.978000
5.342761	-5.958489	5.024000
5.398831	-6.035205	5.070000
5.455643	-6.100879	5.116000
5.513167	-6.091132	5.162000
5.571149	-5.969723	5.207000
5.629221	-5.793416	5.253000
5.687054	-5.629236	5.299000
5.880711	-5.318324	5.345000
5.937005	-5.291625	5.501000
5.994298	-5.259824	5.547000
6.469054	-5.212776	5.592000
6.526320	-4.713122	5.970000
6.584106	-4.633660	6.016000
6.640140	-4.539726	6.062000
6.696454	-4.421663	6.107000
6.754154	-4.305918	6.154000
6.811802	-4.233003	6.199000
6.869614	-4.209876	6.245000
6.927231	-4.240436	6.291000
6.984507	-4.311129	6.337000
7.040422	-4.420649	6.382000
7.255355	-4.591675	6.428000
7.313027	-4.517332	6.601000
7.370377	-4.435897	6.646000
7.576386	-4.375144	6.692000
7.633572	-4.079385	6.858000
7.691590	-3.993216	6.904000
7.749341	-3.918088	6.949000
7.807457	-3.845924	6.995000
7.864230	-3.776525	7.041000
7.920427	-3.712139	7.087000
7.976922	-3.647239	7.132000
8.034231	-3.538963	7.178000
8.091527	-3.459353	7.224000
8.149379	-3.456975	7.270000
8.206997	-3.501919	7.316000
8.264082	-3.582176	7.361000
8.320691	-3.676486	7.407000
8.377238	-3.768296	7.453000
8.434610	-3.821552	7.499000
8.630978	-3.620982	7.544000
8.688571	-3.544403	7.701000
8.746650	-3.440745	7.747000
8.951619	-3.321086	7.792000
9.009417	-3.277029	7.958000
9.067276	-3.343781	8.004000
9.124856	-3.430475	8.049000
9.181065	-3.535092	8.095000
9.237526	-3.625116	8.141000
9.294397	-3.681220	8.187000
9.352238	-3.681735	8.233000
9.410207	-3.630117	8.279000
9.468662	-3.565399	8.325000
9.525761	-3.494344	8.371000
9.582537	-3.385283	8.416000
9.638256	-3.262170	8.462000
9.695157	-3.098654	8.508000
9.752509	-2.996899	8.553000
9.810516	-2.967475	8.599000
10.006088	-3.196012	8.645000
10.062867	-3.307675	8.801000
10.119577	-3.355921	8.847000
10.327238	-3.434098	8.893000
10.384808	-3.546130	9.058000
10.440939	-3.690664	9.104000
10.497690	-3.838868	9.150000
10.554193	-3.950746	9.195000
10.612124	-3.997192	9.241000
10.669597	-3.981925	9.287000
10.727771	-3.933022	9.333000
10.785223	-3.872639	9.379000
10.843273	-3.768637	9.425000
10.899275	-3.687605	9.471000
10.955816	-3.673119	9.516000
11.013002	-3.709075	9.562000
11.070251	-3.770331	9.608000
11.128683	-3.837079	9.654000
11.185679	-3.893978	9.699000
11.700959	-3.600108	9.745000
11.757139	-3.438936	10.158000
11.814377	-3.356113	10.204000
11.871619	-3.279815	10.250000
11.929559	-3.226862	10.296000
11.987601	-3.188421	10.342000
12.046132	-3.145456	10.388000
12.102717	-3.099412	10.433000
12.159028	-3.092689	10.479000
12.215131	-3.122457	10.525000
12.272487	-3.178100	10.570000
12.330345	-3.254747	10.616000
12.388561	-3.335747	10.662000
12.446261	-3.396844	10.708000
12.504364	-3.422677	10.754000
12.560244	-3.418324	10.800000
12.754687	-3.363320	10.846000
12.812354	-3.308019	11.002000
12.869922	-3.205734	11.048000
13.341231	-3.064075	11.094000
13.397386	-2.474480	11.470000
13.454502	-2.324764	11.516000
13.512113	-2.209087	11.562000
13.569705	-2.043047	11.608000
13.627713	-1.849515	11.653000
13.685572	-1.768551	11.699000
13.742184	-1.790332	11.745000
13.798576	-1.841324	11.791000
13.854627	-1.945007	11.836000
13.911865	-2.101603	11.882000
14.129290	-2.647960	11.928000
14.187597	-2.665464	12.101000
14.245036	-2.700192	12.146000
14.450276	-2.731660	12.192000
14.508519	-2.938673	12.358000
14.566079	-3.039413	12.404000
14.623028	-3.116708	12.449000
14.679193	-3.149076	12.495000
14.735290	-3.140217	12.541000
14.792639	-3.116607	12.587000
14.850113	-3.098756	12.632000
14.908099	-3.103249	12.678000
14.965704	-3.122063	12.724000
15.022989	-3.100759	12.770000
15.079378	-3.035489	12.816000
15.135234	-2.959074	12.861000
15.193133	-2.872691	12.907000
15.250214	-2.799620	12.953000
15.308064	-2.776252	12.999000
15.504272	-2.728567	13.044000
15.561470	-2.843949	13.201000
15.617849	-2.979823	13.247000
15.825687	-3.044201	13.293000
15.883397	-3.157544	13.458000
15.939920	-3.181922	13.504000
15.996285	-3.229719	13.549000
16.053054	-3.258804	13.595000
16.110692	-3.250330	13.641000
16.168296	-3.235719	13.687000
16.226526	-3.206697	13.732000
16.283391	-3.161273	13.778000
16.339833	-3.125334	13.824000
16.395877	-3.120489	13.870000
16.452913	-3.135847	13.915000
16.510712	-3.067828	13.961000
16.568347	-2.899176	14.007000
16.626486	-2.713879	14.052000
16.683824	-2.591700	14.098000
16.878757	-2.211355	14.144000
16.934823	-2.196623	14.301000
16.992293	-2.226495	14.347000
17.199971	-2.242401	14.393000
17.256406	-2.351030	14.558000
17.313663	-2.370729	14.604000
17.371042	-2.436567	14.650000
17.428804	-2.551735	14.695000
17.486368	-2.673090	14.741000
17.544257	-2.781405	14.787000
17.599895	-2.873085	14.832000
17.656063	-2.926367	14.878000
17.713165	-2.954111	14.924000
17.770679	-2.960863	14.970000
17.828880	-2.921246	15.015000
17.886970	-2.802224	15.061000
17.944479	-2.700192	15.107000
18.001106	-2.699188	15.153000
18.056337	-2.767807	15.199000
18.573912	-1.850539	15.244000
18.631418	-1.824078	15.658000
18.689144	-1.769785	15.704000
18.747064	-1.690867	15.750000
18.804726	-1.644172	15.795000
18.861557	-1.652786	15.841000
18.918278	-1.702035	15.887000
18.975293	-1.715435	15.933000
19.032558	-1.690243	15.978000
19.089858	-1.689117	16.024000
19.147776	-1.709594	16.070000
19.205161	-1.718036	16.116000
19.262595	-1.704928	16.162000
19.318631	-1.681362	16.208000
19.375010	-1.662548	16.253000
19.433035	-1.658627	16.299000
19.628362	-1.434346	16.345000
19.686926	-1.377556	16.501000
19.744267	-1.352987	16.547000
20.214180	-1.353118	16.592000
20.271848	-1.943447	16.970000
20.329668	-2.088141	17.016000
20.387513	-2.233441	17.062000
20.445321	-2.295516	17.108000
20.502703	-2.238475	17.154000
20.558406	-2.084790	17.199000
20.615606	-1.932571	17.245000
20.673264	-1.781902	17.291000
20.730178	-1.773883	17.337000
20.788264	-1.843312	17.383000
21.004577	-1.877849	17.428000
21.061795	-1.918641	17.601000
21.117199	-1.912083	17.647000
21.325492	-1.858953	17.693000
21.382545	-1.614756	17.858000
21.438861	-1.543839	17.904000
21.495311	-1.500141	17.950000
21.553087	-1.498112	17.996000
21.610617	-1.540089	18.041000
21.668425	-1.616550	18.087000
21.726437	-1.715708	18.133000
21.783837	-1.841950	18.178000
21.840260	-1.963428	18.224000
21.896094	-2.053523	18.270000
21.953557	-2.111048	18.316000
22.010952	-2.131141	18.362000
22.069460	-2.117580	18.408000
22.127675	-2.061113	18.453000
22.184800	-1.964887	18.499000
22.377931	-1.569317	18.545000
22.434954	-1.478630	18.701000
22.492466	-1.402843	18.747000
22.699943	-1.338411	18.793000
22.756309	-1.293068	18.958000
22.812909	-1.357532	19.004000
22.870275	-1.441413	19.050000
22.928633	-1.528779	19.096000
22.986945	-1.600564	19.141000
23.044557	-1.643750	19.187000
23.100026	-1.658054	19.233000
23.156409	-1.652605	19.279000
23.213250	-1.644173	19.324000
23.270972	-1.644793	19.370000
23.328699	-1.657700	19.416000
23.386567	-1.680088	19.462000
23.444597	-1.701184	19.507000
23.501623	-1.717763	19.553000
23.558229	-1.722753	19.599000
23.752413	-1.600695	19.645000
23.810239	-1.535103	19.801000
23.868145	-1.475707	19.847000
24.073574	-1.432424	19.893000
24.131175	-1.407930	20.058000
24.188684	-1.383502	20.104000
24.246884	-1.335826	20.150000
24.304270	-1.272581	20.195000
24.360774	-1.198628	20.241000
24.417214	-1.121387	20.287000
24.474295	-1.041708	20.332000
24.531185	-0.979342	20.378000
24.589526	-0.927897	20.424000
24.646923	-0.869072	20.470000
24.705131	-0.802854	20.516000
24.761775	-0.732589	20.562000
24.818541	-0.663733	20.608000
24.875024	-0.604560	20.653000
24.932304	-0.548846	20.699000
25.449420	-0.560973	20.745000
25.507516	-0.742357	21.158000
25.564892	-0.794543	21.204000
25.622232	-0.867958	21.250000
25.677760	-0.933462	21.295000
25.734635	-0.947251	21.341000
25.791998	-0.901730	21.387000
25.850194	-0.836480	21.433000
25.907530	-0.765892	21.478000
25.965027	-0.668996	21.524000
26.022094	-0.542612	21.570000
26.077922	-0.404587	21.615000
26.134079	-0.275238	21.661000
26.191557	-0.160800	21.707000
26.249623	-0.055013	21.753000
26.307727	0.044978	21.799000
26.504281	0.302104	21.844000
26.560709	0.267808	22.001000
26.616569	0.276283	22.047000
27.089194	0.331958	22.093000
27.148138	1.097368	22.470000
27.204953	1.149638	22.516000
27.262477	1.185090	22.562000
27.317637	1.220234	22.608000
27.374667	1.273452	22.654000
27.431588	1.334409	22.699000
27.489510	1.327519	22.745000
27.547887	1.353157	22.791000
27.605488	1.410911	22.837000
27.662124	1.464788	22.882000
27.877734	1.250626	22.928000
27.934069	1.106388	23.101000
27.991988	0.992561	23.147000
28.199405	0.866527	23.193000
28.255185	0.519826	23.358000
28.312836	0.550876	23.404000
28.370197	0.601788	23.450000
28.428555	0.647557	23.496000
28.486970	0.700130	23.542000
28.544523	0.756972	23.587000
28.601041	0.759702	23.633000
28.657239	0.695295	23.679000
28.714245	0.605649	23.725000
28.771606	0.538182	23.771000
28.829539	0.503854	23.817000
28.887826	0.481531	23.863000
28.945532	0.460091	23.908000
29.002741	0.431486	23.954000
29.059075	0.392561	24.000000
29.253157	0.305541	24.046000
29.311057	0.350944	24.202000
29.368931	0.400460	24.248000
29.573428	0.455234	24.294000
29.631354	0.610192	24.458000
29.689398	0.578238	24.504000
29.746830	0.535570	24.550000
29.804351	0.512976	24.596000
29.861437	0.526388	24.642000
29.917466	0.517346	24.687000
29.974364	0.472777	24.733000
30.032107	0.427923	24.779000
30.090100	0.388444	24.825000
30.147599	0.331201	24.871000
30.205942	0.270322	24.917000
30.262736	0.224905	24.963000
30.318362	0.206700	25.008000
30.375045	0.235216	25.054000
30.432500	0.267899	25.100000
30.628597	0.253555	25.146000
30.686069	0.219827	25.301000
30.743676	0.207134	25.347000
30.949178	0.173146	25.393000
31.007209	-0.032133	25.558000
31.064818	-0.036557	25.604000
31.122242	-0.132707	25.650000
31.177818	-0.199563	25.696000
31.234417	-0.266285	25.742000
31.292217	-0.291712	25.788000
31.349532	-0.351729	25.834000
31.407763	-0.428303	25.879000
31.465877	-0.407116	25.925000
31.522648	-0.340378	25.971000
31.578610	-0.289824	26.016000
31.635385	-0.232014	26.062000
31.692658	-0.144659	26.108000
31.750366	-0.061258	26.154000
31.808526	-0.041094	26.200000
32.325241	-0.210867	26.246000
32.382409	-0.022476	26.658000
32.438318	0.060561	26.704000
32.494987	0.120435	26.750000
32.552444	0.157056	26.796000
32.609844	0.185552	26.842000
32.667984	0.217536	26.887000
32.724957	0.277499	26.933000
32.782387	0.370536	26.979000
32.838380	0.497211	27.024000
32.895153	0.659044	27.070000
32.952445	0.844996	27.115000
33.010152	1.018953	27.161000
33.068093	1.127627	27.207000
33.125234	1.160696	27.253000
33.181961	1.138973	27.299000
33.377478	0.948647	27.344000
33.434616	0.922773	27.502000
33.492265	0.915747	27.548000
33.965962	0.927193	27.593000
34.022389	1.274836	27.971000
34.079401	1.321441	28.017000
34.135259	1.343742	28.062000
34.193204	1.327660	28.108000
34.250484	1.274262	28.154000
34.308440	1.198813	28.200000
34.365632	1.115402	28.246000
34.423373	1.027988	28.291000
34.479328	0.937650	28.337000
34.535233	0.844351	28.383000
34.752379	0.440058	28.429000
34.810093	0.336046	28.601000
34.868718	0.239209	28.647000
35.073163	0.153679	28.693000
35.130947	-0.036324	28.858000
35.188127	-0.066135	28.904000
35.246598	-0.073322	28.950000
35.304278	-0.045387	28.996000
35.360916	0.010767	29.042000
35.416472	0.073761	29.088000
35.473548	0.123067	29.133000
35.531228	0.155890	29.179000
35.589173	0.190296	29.225000
35.647321	0.239341	29.271000
35.705562	0.299509	29.316000
35.761820	0.368611	29.362000
35.818097	0.446974	29.408000
35.874759	0.544627	29.454000
35.931966	0.654987	29.499000
36.128282	0.933997	29.545000
36.186342	0.982405	29.702000
36.243411	1.013286	29.747000
36.449170	1.040163	29.793000
36.507038	1.274857	29.958000
36.564910	1.376946	30.004000
36.621714	1.476700	30.050000
36.677941	1.569004	30.096000
36.734761	1.655743	30.141000
36.792659	1.731047	30.188000
36.850074	1.789092	30.234000
36.908468	1.839496	30.279000
36.965818	1.879626	30.325000
37.023213	1.899709	30.371000
37.079494	1.909986	30.417000
37.135330	1.935105	30.462000
37.192825	1.972546	30.508000
37.250205	2.027980	30.554000
37.307489	2.088004	30.600000
37.503644	2.189740	30.646000
37.559868	2.223437	30.802000
37.615919	2.259131	30.847000
37.824505	2.301727	30.893000
37.880917	2.395783	31.059000
37.937487	2.392744	31.104000
37.993633	2.382972	31.150000
38.052397	2.375977	31.196000
38.109800	2.381075	31.241000
38.168017	2.392572	31.287000
38.224802	2.406227	31.333000
38.282385	2.389650	31.379000
38.338133	2.411541	31.425000
38.394967	2.513697	31.470000
38.452505	2.601387	31.516000
38.510841	2.634297	31.562000
38.568341	2.620694	31.608000
38.626308	2.590414	31.654000
38.682878	2.567851	31.699000
39.198323	2.316935	31.745000
39.255030	2.214956	32.159000
39.312637	2.188280	32.204000
39.369836	2.147910	32.250000
39.428327	2.095443	32.296000
39.486444	2.048821	32.342000
39.543248	2.008766	32.388000
39.599952	1.961199	32.433000
39.655819	1.889074	32.479000
39.713245	1.780842	32.525000
39.770636	1.651768	32.571000
39.828135	1.514028	32.616000
39.886038	1.380327	32.662000
39.943683	1.265810	32.708000
39.999953	1.207784	32.754000
40.056100	1.208938	32.800000
40.251663	1.313740	32.845000
40.309638	1.380357	33.002000
40.368570	1.485713	33.048000
40.838790	1.621627	33.094000
40.895487	2.386702	33.471000
40.952498	2.345401	33.517000
41.010420	2.301657	33.562000
41.068249	2.266777	33.608000
41.126029	2.267300	33.654000
41.183839	2.324062	33.700000
41.240474	2.414489	33.746000
41.296386	2.511133	33.792000
41.353451	2.583713	33.838000
41.411004	2.630210	33.883000
41.627643	2.842409	33.929000
41.685772	2.969559	34.102000
41.742918	3.088324	34.148000
41.948546	3.164338	34.194000
42.006295	3.217903	34.358000
42.063810	3.394299	34.404000
42.119791	3.662127	34.450000
42.175934	3.932382	34.496000
42.233534	4.136236	34.542000
42.291305	4.253365	34.587000
42.348951	4.329670	34.633000
42.407057	4.394812	34.678000
42.463499	4.450710	34.724000
42.520180	4.490073	34.770000
42.575685	4.503050	34.816000
42.633688	4.495232	34.861000
42.690914	4.485642	34.907000
42.748967	4.478556	34.953000
42.806969	4.465156	34.999000
43.003831	4.243613	35.045000
43.059809	4.179087	35.202000
43.116539	4.111266	35.247000
43.324673	4.027896	35.294000
43.381123	3.645451	35.459000
43.437266	3.535221	35.505000
43.494896	3.423415	35.550000
43.551895	3.317169	35.596000
43.609575	3.224440	35.642000
43.667750	3.152850	35.688000
43.725634	3.109427	35.734000
43.781934	3.097482	35.779000
43.837881	3.116841	35.825000
43.894862	3.155111	35.871000
43.952077	3.200971	35.917000
44.009783	3.254365	35.962000
44.067913	3.318436	36.008000
44.125700	3.394308	36.054000
44.182515	3.479724	36.099000
44.375977	3.835831	36.145000
44.433388	3.939520	36.302000
44.491682	4.044330	36.348000
44.697802	4.146356	36.393000
44.754860	4.495964	36.558000
44.812474	4.614696	36.605000
44.869985	4.763639	36.651000
44.927964	4.922935	36.697000
44.986120	5.012985	36.742000
45.042455	5.021736	36.788000
45.098752	4.993835	36.834000
45.154530	5.006185	36.880000
45.212087	5.133605	36.925000
45.269302	5.270242	36.971000
45.327331	5.318841	37.017000
45.385456	5.320240	37.063000
45.443305	5.278312	37.109000
45.499809	5.188309	37.154000
45.556075	5.116352	37.200000
46.072207	5.008659	37.246000
46.130098	5.174570	37.659000
46.188051	5.256231	37.705000
46.245723	5.287857	37.751000
46.303199	5.266962	37.796000
46.359469	5.219853	37.842000
46.416084	5.147036	37.888000
46.472807	5.085860	37.934000
46.530706	5.018057	37.980000
46.588839	4.937673	38.026000
46.647045	4.863627	38.072000
46.703818	4.804940	38.117000
46.760683	4.768376	38.163000
46.816465	4.751977	38.209000
46.873384	4.752707	38.254000
46.931095	4.770383	38.300000
47.127165	4.816190	38.346000
47.184699	4.775039	38.502000
47.242086	4.724782	38.548000
47.711888	4.667180	38.594000
47.769652	4.748914	38.971000
47.827892	4.700281	39.017000
47.886075	4.647411	39.063000
47.943759	4.602794	39.108000
47.999748	4.582025	39.154000
48.056183	4.583433	39.200000
48.113075	4.591634	39.246000
48.170805	4.609941	39.292000
48.228212	4.653796	39.338000
48.287029	4.728077	39.383000
48.502730	5.095987	39.429000
48.559177	5.159389	39.602000
48.615416	5.204980	39.648000
48.823757	5.231047	39.694000
48.880641	5.209404	39.859000
48.937126	5.207187	39.905000
48.994183	5.216602	39.951000
49.051529	5.240269	39.997000
49.109285	5.299802	40.043000
49.167319	5.387675	40.088000
49.224902	5.466323	40.134000
49.281910	5.510647	40.180000
49.337707	5.532934	40.226000
49.394564	5.562643	40.271000
49.452017	5.608280	40.317000
49.509301	5.655398	40.363000
49.567719	5.694402	40.409000
49.625844	5.703898	40.454000
49.683044	5.686051	40.501000
49.876041	5.514448	40.546000
49.933405	5.423816	40.702000
49.990797	5.343234	40.748000
50.196640	5.286472	40.794000
50.253786	5.256191	40.959000
50.311416	5.242751	41.005000
50.369618	5.148577	41.051000
50.427336	4.977920	41.096000
50.484697	4.765764	41.142000
50.541893	4.535024	41.188000
50.598554	4.303150	41.234000
50.654605	4.090150	41.280000
50.712538	3.907057	41.325000
50.769607	3.756103	41.371000
50.827759	3.684144	41.417000
50.885689	3.746715	41.462000
50.942915	3.898433	41.508000
50.998524	4.062294	41.554000
51.055109	4.169862	41.599000
51.250534	4.109808	41.645000
51.309055	4.069002	41.802000
51.366085	4.040100	41.848000
51.571568	4.010829	41.894000
51.629736	3.736721	42.059000
51.687500	3.631824	42.104000
51.745602	3.559271	42.150000
51.802974	3.501276	42.196000
51.859087	3.431615	42.242000
51.915268	3.352883	42.288000
51.972544	3.284629	42.334000
52.030731	3.244200	42.380000
52.087935	3.247677	42.425000
52.146160	3.302683	42.471000
52.202798	3.377990	42.517000
52.259226	3.452103	42.563000
52.315219	3.515671	42.608000
52.372645	3.571654	42.654000
52.429960	3.634675	42.700000
52.947195	4.483517	42.746000
53.005420	4.628768	43.159000
53.062639	4.723930	43.205000
53.118344	4.840101	43.250000
53.174790	4.973105	43.296000
53.231851	5.105441	43.342000
53.289139	5.214990	43.388000
53.347311	5.314809	43.434000
53.406039	5.416956	43.480000
53.463208	5.512853	43.525000
53.520361	5.597153	43.571000
53.576516	5.664471	43.617000
53.633865	5.714325	43.663000
53.691226	5.744668	43.709000
53.748790	5.760683	43.755000
53.806724	5.771978	43.801000
54.001653	5.778474	43.846000
54.058173	5.785439	44.002000
54.114450	5.810307	44.048000
54.588027	5.865740	44.094000
54.645707	6.237123	44.471000
54.703310	6.143905	44.517000
54.759461	6.124224	44.563000
54.815481	6.147438	44.609000
54.872031	6.192793	44.654000
54.929918	6.244415	44.700000
54.987817	6.279328	44.746000
55.046219	6.287914	44.792000
55.103706	6.286375	44.838000
55.159949	6.279732	44.883000
55.375436	6.071597	44.929000
55.432927	5.958168	45.102000
55.490342	5.820992	45.148000
55.696439	5.701721	45.194000
55.753669	5.630223	45.359000
55.810961	5.622664	45.405000
55.868698	5.591941	45.450000
55.926643	5.538723	45.496000
55.984065	5.474726	45.542000
56.041142	5.395433	45.588000
56.096659	5.303778	45.634000
56.154523	5.227151	45.680000
56.211707	5.186434	45.725000
56.269195	5.186031	45.771000
56.327201	5.230003	45.817000
56.385146	5.319452	45.863000
56.442307	5.433753	45.909000
56.498534	5.550850	45.954000
56.554754	5.657534	46.000000
56.750594	5.817605	46.046000
56.808565	5.757552	46.202000
56.866622	5.643902	46.248000
57.070783	5.480833	46.294000
57.128508	5.320139	46.459000
57.186634	5.402484	46.505000
57.245074	5.498438	46.551000
57.302308	5.600745	46.596000
57.357237	5.671214	46.642000
57.414329	5.698036	46.688000
57.471256	5.716774	46.734000
57.529247	5.701347	46.779000
57.587134	5.719663	46.825000
57.645021	5.819867	46.871000
57.701917	5.905600	46.917000
57.757737	5.980649	46.963000
57.814291	6.059621	47.008000
57.871802	6.123932	47.054000
57.929259	6.157245	47.100000
58.126828	6.229097	47.146000
58.184188	6.271571	47.302000
58.241200	6.310257	47.348000
58.447520	6.346956	47.394000
58.504888	6.481445	47.559000
58.562345	6.515720	47.605000
58.618165	6.497465	47.651000
58.674735	6.478996	47.696000
58.732249	6.499420	47.742000
58.789387	6.557930	47.788000
58.848162	6.593107	47.834000
58.905811	6.574970	47.880000
58.963095	6.490676	47.925000
59.018992	6.368529	47.971000
59.075546	6.242064	48.017000
59.132488	6.134632	48.062000
59.189876	6.080168	48.108000
59.247221	6.097795	48.153000
59.305681	6.162043	48.199000
59.822424	6.462675	48.245000
59.878782	6.505565	48.659000
59.935367	6.534862	48.705000
59.992532	6.577421	48.751000
60.049824	6.628442	48.797000
60.108483	6.691851	48.843000
60.165702	6.765379	48.888000
60.223124	6.843341	48.934000
60.279766	6.922674	48.980000
60.335356	7.000784	49.026000
60.392018	7.071044	49.071000
60.450343	7.124530	49.117000
60.508645	7.158571	49.163000
60.566563	7.180693	49.209000
60.624308	7.188631	49.255000
60.680866	7.168953	49.300000
60.874351	6.790268	49.346000
60.931919	6.689540	49.503000
60.990217	6.651088	49.549000
61.462081	6.662727	49.594000
61.519250	7.450920	49.971000
61.575216	7.486062	50.017000
61.632681	7.492855	50.063000
61.690134	7.474972	50.109000
61.748021	7.450735	50.155000
61.805578	7.438327	50.201000
61.863573	7.431431	50.247000
61.920826	7.397583	50.293000
61.976470	7.325569	50.338000
62.033392	7.238963	50.384000
62.250385	6.961019	50.430000
62.308226	6.951795	50.603000
62.366439	6.967434	50.648000
62.570842	7.004427	50.694000
62.628841	7.223038	50.859000
62.687024	7.209890	50.905000
62.744066	7.162586	50.951000
62.800870	7.839196	50.997000
62.856982	6.892254	51.042000
62.914012	6.969340	51.088000
62.970778	6.959956	51.134000
63.029030	6.948181	51.179000
63.086936	6.949577	51.225000
63.144589	6.970896	51.271000
63.201447	7.018873	51.317000
63.257632	7.094877	51.362000
63.314002	7.192370	51.408000
63.371174	7.303455	51.454000
63.429330	7.430968	51.500000
63.626561	7.825982	51.546000
63.684271	7.900389	51.702000
63.741259	7.966375	51.748000
63.947334	8.026035	51.794000
64.004983	8.220372	51.959000
64.062055	8.198478	52.005000
64.118598	8.148965	52.051000
64.174391	8.090846	52.097000
64.232305	8.028842	52.143000
64.289397	7.966699	52.188000
64.347530	7.913935	52.234000
64.405306	7.878956	52.280000
64.462621	7.875413	52.325000
64.519102	7.911033	52.372000
64.575299	7.983426	52.417000
64.632510	8.055809	52.463000
64.690289	8.082147	52.509000
64.748668	8.052109	52.555000
64.806855	7.996605	52.600000
65.001438	7.885680	52.646000
65.057804	7.921920	52.803000
65.113824	7.986965	52.849000
65.322184	8.017440	52.895000
65.378919	7.677106	53.059000
65.434701	7.636858	53.105000
65.492542	7.634934	53.151000
65.549830	7.648780	53.197000
65.608055	7.700523	53.243000
65.666257	7.782497	53.288000
65.723875	7.872083	53.334000
65.780095	7.953603	53.380000
65.836077	7.978804	53.426000
65.892981	7.954849	53.471000
65.950391	7.919619	53.517000
66.008486	7.877340	53.563000
66.066327	7.762665	53.609000
66.124322	7.659313	53.655000
66.181095	7.598186	53.701000
66.695464	7.783903	53.746000
66.752982	8.060361	54.159000
66.810785	8.171076	54.205000
66.868549	8.253840	54.251000
66.926997	8.314317	54.297000
66.983970	8.351869	54.343000
67.040927	8.356912	54.388000
67.097024	8.332367	54.434000
67.154351	8.294131	54.480000
67.210908	8.267304	54.526000
67.268742	8.260077	54.571000
67.326637	8.255822	54.617000
67.384455	8.265297	54.663000
67.441489	8.300951	54.709000
67.498147	8.344359	54.755000
67.553998	8.388630	54.801000
67.749949	8.713302	54.847000
67.807629	8.787165	55.003000
67.865800	8.922926	55.049000
68.334737	9.111627	55.095000
68.392063	9.522227	55.472000
68.450511	9.599675	55.518000
68.508859	9.779158	55.563000
68.566739	9.997638	55.609000
68.624126	10.185449	55.655000
68.680631	10.293401	55.701000
68.736482	10.317220	55.746000
68.793915	10.316463	55.792000
68.851434	10.300507	55.838000
68.909436	10.259133	55.884000
69.125979	10.297804	55.930000
69.183467	10.308345	56.103000
69.240378	10.282187	56.149000
69.446840	10.244105	56.195000
69.504535	9.970476	56.359000
69.561408	9.893496	56.405000
69.617436	9.831227	56.451000
69.673725	9.802506	56.497000
69.731282	9.832331	56.543000
69.788693	9.922729	56.588000
69.846810	10.037565	56.634000
69.904136	10.135694	56.680000
69.961570	10.191213	56.726000
70.017829	10.211155	56.772000
70.074678	10.230013	56.818000
70.131590	10.276397	56.863000
70.188770	10.343024	56.909000
70.247018	10.399389	56.954000
70.305190	10.411324	57.000000
70.500841	10.158342	57.046000
70.557054	10.082653	57.203000
70.613988	10.022631	57.249000
70.821495	9.949057	57.295000
70.877876	9.630378	57.459000
70.934434	9.574802	57.505000
70.991837	9.534171	57.551000
71.049432	9.507730	57.597000
71.107358	9.492576	57.643000
71.165261	9.492807	57.689000
71.222372	9.508295	57.734000
71.278315	9.542260	57.780000
71.334350	9.598339	57.826000
71.391999	9.681372	57.871000
71.448980	9.792451	57.917000
71.507413	9.929473	57.963000
71.565207	10.076570	58.009000
71.622672	10.222359	58.055000
71.678339	10.362601	58.100000
71.873898	10.754084	58.146000
71.931263	10.843562	58.303000
71.989173	10.930508	58.349000
72.194306	11.004309	58.395000
72.252001	11.121142	58.559000
72.309973	11.140263	58.605000
72.367929	11.172922	58.651000
72.426292	11.227081	58.697000
72.482981	11.299784	58.743000
72.539692	11.381484	58.789000
72.596135	11.453290	58.835000
72.653269	11.502417	58.881000
72.710519	11.532968	58.926000
72.768291	11.561340	58.972000
72.825955	11.599703	59.018000
72.884065	11.647981	59.063000
72.940024	11.697625	59.109000
72.996121	11.742258	59.155000
73.053132	11.776958	59.201000
73.570321	12.415118	59.247000
73.628431	12.466077	59.659000
73.686610	12.492976	59.705000
73.743967	12.476253	59.751000
73.800048	12.405399	59.797000
73.856598	12.314535	59.843000
73.913241	12.243949	59.888000
73.970460	12.213962	59.934000
74.028093	12.193883	59.980000
74.086372	12.136472	60.026000
74.144490	12.119718	60.071000
74.201317	12.147912	60.117000
74.257052	12.249788	60.163000
74.313749	12.451382	60.209000
74.370691	12.654323	60.255000
74.428870	12.786418	60.300000
74.625620	12.910342	60.346000
74.683016	12.918221	60.503000
74.739789	12.935609	60.549000
75.210001	12.962647	60.595000
75.267588	13.660529	60.971000
75.325798	13.822377	61.018000
75.383509	13.986062	61.063000
75.440251	14.133604	61.109000
75.496455	14.276077	61.155000
75.552983	14.417454	61.201000
75.610747	14.520697	61.247000
75.667781	14.579810	61.292000
75.725853	14.626478	61.338000
75.782925	14.685158	61.383000
75.999607	14.875565	61.429000
76.056226	14.995188	61.603000
76.112822	15.086636	61.649000
76.320322	15.158581	61.695000
76.376603	15.442141	61.859000
76.433668	15.599219	61.905000
76.490741	15.763577	61.951000
76.548420	15.928369	61.997000
76.605954	16.098691	62.042000
76.663941	16.288637	62.088000
76.720514	16.498016	62.134000
76.776896	16.705827	62.180000
76.833400	16.896726	62.226000
76.890887	17.078153	62.271000
76.948344	17.247327	62.317000
77.006577	17.391959	62.363000
77.064119	17.529598	62.409000
77.121345	17.692046	62.454000
77.177311	17.890496	62.500000
77.373055	18.293848	62.546000
77.430635	18.353114	62.703000
77.488307	18.502166	62.749000
77.693140	18.672092	62.795000
77.750320	19.013328	62.960000
77.808246	19.046097	63.005000
77.866671	19.071411	63.051000
77.924220	19.115711	63.097000
77.981731	19.208673	63.143000
78.038043	19.340186	63.189000
78.094724	19.472156	63.234000
78.152073	19.584179	63.280000
78.209599	19.708119	63.326000
78.268001	19.871303	63.372000
78.325926	20.068281	63.418000
78.382700	20.278978	63.463000
78.439042	20.495612	63.509000
78.494932	20.711498	63.555000
78.551989	20.920903	63.600000
78.748378	21.599688	63.646000
78.806504	21.922891	63.803000
78.864706	22.235998	63.849000
79.069047	22.500060	63.895000
79.127603	23.303007	64.060000
79.185267	23.600027	64.105000
79.242709	23.971576	64.151000
79.299735	24.384791	64.197000
79.355702	24.722290	64.243000
79.412482	24.939676	64.289000
79.470108	25.093256	64.335000
79.527788	25.239301	64.381000
79.585552	25.397507	64.426000
79.643547	25.576111	64.472000
79.700912	25.772781	64.518000
79.756863	25.988158	64.564000
79.813643	26.232535	64.610000
79.871077	26.503375	64.655000
79.928311	26.767241	64.701000
80.446099	28.356750	64.747000
80.503257	29.005619	65.160000
80.560637	29.395439	65.206000
80.616780	29.789686	65.252000
80.673998	30.203090	65.298000
80.731709	30.650420	65.344000
80.789296	31.080236	65.389000
80.847406	31.476583	65.435000
80.904717	31.867796	65.481000
80.961767	32.257365	65.526000
81.018402	32.629051	65.572000
81.074260	32.973021	65.618000
81.131871	33.294260	65.664000
81.189328	33.612040	65.710000
81.247415	33.913644	65.755000
81.305018	34.257562	65.801000
81.499301	35.993274	65.847000
81.555560	36.528490	66.003000
81.612978	37.003743	66.049000
82.085803	37.367984	66.095000
82.143759	40.068149	66.472000
82.200770	40.480915	66.518000
82.256706	40.935598	66.564000
82.313717	41.400893	66.610000
82.371128	41.864860	66.655000
82.428454	42.314849	66.701000
82.486541	42.748930	66.747000
82.543929	43.177061	66.793000
82.600978	43.622795	66.838000
82.657406	44.089490	66.884000
